Sample:	
Run Date:	20-02-2020 19:38:01
Operator:	Hitachi spectro
Comment:	

Instrument
Model:	U-2010 Spectrophotometer
Serial Number:	9709-014
ROM Version:	2550 00

Instrument Parameters
Measurement Type:	Wavelength Scan
Data Mode:	Abs
Starting Wavelength:	700.0 nm
Ending Wavelength:	200.0 nm
Scan Speed:	100 nm/min
Sampling Interval:	1.0 nm
Slit Width:	2 nm
Lamp Change:	370.0 nm
Baseline Correction:	System
Response:	Medium

Peak Integration
Area Method:	Rectangular
Threshold:	10.0% based on 1 highest peaks
Peak Width:	10.0 nm
Peaks
Peak #	Start (nm)	Apex (nm)	End (nm)	Height (Abs)	Area (Abs*nm)
1	270.0	233.0	217.0	2.2490	27.0125

Data Points
nm	Abs
600.0	-0.0009
599.0	-0.0007
598.0	-0.0007
597.0	-0.0007
596.0	-0.0007
595.0	-0.0007
594.0	-0.0007
593.0	-0.0007
592.0	-0.0007
591.0	-0.0007
590.0	-0.0007
589.0	-0.0007
588.0	-0.0007
587.0	-0.0005
586.0	-0.0003
585.0	0.0000
584.0	0.0003
583.0	0.0007
582.0	0.0012
581.0	0.0017
580.0	0.0022
579.0	0.0029
578.0	0.0036
577.0	0.0047
576.0	0.0058
575.0	0.0070
574.0	0.0083
573.0	0.0100
572.0	0.0120
571.0	0.0144
570.0	0.0171
569.0	0.0201
568.0	0.0235
567.0	0.0272
566.0	0.0313
565.0	0.0358
564.0	0.0408
563.0	0.0463
562.0	0.0522
561.0	0.0587
560.0	0.0655
559.0	0.0724
558.0	0.0796
557.0	0.0869
556.0	0.0944
555.0	0.1017
554.0	0.1090
553.0	0.1161
552.0	0.1233
551.0	0.1301
550.0	0.1363
549.0	0.1418
548.0	0.1467
547.0	0.1507
546.0	0.1536
545.0	0.1558
544.0	0.1571
543.0	0.1574
542.0	0.1569
541.0	0.1555
540.0	0.1533
539.0	0.1506
538.0	0.1472
537.0	0.1432
536.0	0.1386
535.0	0.1338
534.0	0.1286
533.0	0.1231
532.0	0.1172
531.0	0.1114
530.0	0.1057
529.0	0.1001
528.0	0.0949
527.0	0.0899
526.0	0.0851
525.0	0.0806
524.0	0.0765
523.0	0.0728
522.0	0.0694
521.0	0.0663
520.0	0.0635
519.0	0.0610
518.0	0.0590
517.0	0.0571
516.0	0.0556
515.0	0.0541
514.0	0.0527
513.0	0.0514
512.0	0.0503
511.0	0.0492
510.0	0.0482
509.0	0.0470
508.0	0.0459
507.0	0.0448
506.0	0.0437
505.0	0.0425
504.0	0.0411
503.0	0.0397
502.0	0.0382
501.0	0.0367
500.0	0.0350
499.0	0.0332
498.0	0.0314
497.0	0.0297
496.0	0.0280
495.0	0.0262
494.0	0.0243
493.0	0.0226
492.0	0.0210
491.0	0.0194
490.0	0.0181
489.0	0.0167
488.0	0.0153
487.0	0.0140
486.0	0.0129
485.0	0.0118
484.0	0.0109
483.0	0.0100
482.0	0.0093
481.0	0.0086
480.0	0.0079
479.0	0.0073
478.0	0.0066
477.0	0.0061
476.0	0.0056
475.0	0.0050
474.0	0.0046
473.0	0.0041
472.0	0.0038
471.0	0.0034
470.0	0.0030
469.0	0.0026
468.0	0.0022
467.0	0.0019
466.0	0.0016
465.0	0.0012
464.0	0.0007
463.0	0.0003
462.0	-0.0001
461.0	-0.0003
460.0	-0.0007
459.0	-0.0009
458.0	-0.0012
457.0	-0.0015
456.0	-0.0018
455.0	-0.0020
454.0	-0.0021
453.0	-0.0021
452.0	-0.0023
451.0	-0.0024
450.0	-0.0026
449.0	-0.0027
448.0	-0.0029
447.0	-0.0031
446.0	-0.0031
445.0	-0.0032
444.0	-0.0033
443.0	-0.0033
442.0	-0.0033
441.0	-0.0034
440.0	-0.0034
439.0	-0.0034
438.0	-0.0033
437.0	-0.0033
436.0	-0.0034
435.0	-0.0033
434.0	-0.0033
433.0	-0.0032
432.0	-0.0029
431.0	-0.0029
430.0	-0.0029
429.0	-0.0027
428.0	-0.0026
427.0	-0.0024
426.0	-0.0021
425.0	-0.0021
424.0	-0.0021
423.0	-0.0020
422.0	-0.0018
421.0	-0.0015
420.0	-0.0014
419.0	-0.0012
418.0	-0.0012
417.0	-0.0010
416.0	-0.0010
415.0	-0.0010
414.0	-0.0010
413.0	-0.0010
412.0	-0.0010
411.0	-0.0010
410.0	-0.0010
409.0	-0.0010
408.0	-0.0010
407.0	-0.0010
406.0	-0.0009
405.0	-0.0007
404.0	-0.0007
403.0	-0.0007
402.0	-0.0007
401.0	-0.0007
400.0	-0.0007
399.0	-0.0007
398.0	-0.0007
397.0	-0.0007
396.0	-0.0007
395.0	-0.0007
394.0	-0.0007
393.0	-0.0007
392.0	-0.0007
391.0	-0.0007
390.0	-0.0007
389.0	-0.0007
388.0	-0.0009
387.0	-0.0010
386.0	-0.0010
385.0	-0.0010
384.0	-0.0010
383.0	-0.0010
382.0	-0.0012
381.0	-0.0014
380.0	-0.0017
379.0	-0.0021
378.0	-0.0021
377.0	-0.0020
376.0	-0.0019
375.0	-0.0018
374.0	-0.0016
373.0	-0.0015
372.0	-0.0013
371.0	-0.0007
370.0	0.0007
369.0	0.0019
368.0	0.0024
367.0	0.0029
366.0	0.0034
365.0	0.0043
364.0	0.0051
363.0	0.0060
362.0	0.0067
361.0	0.0075
360.0	0.0083
359.0	0.0090
358.0	0.0093
357.0	0.0095
356.0	0.0097
355.0	0.0097
354.0	0.0097
353.0	0.0095
352.0	0.0090
351.0	0.0083
350.0	0.0077
349.0	0.0070
348.0	0.0064
347.0	0.0056
346.0	0.0050
345.0	0.0045
344.0	0.0039
343.0	0.0036
342.0	0.0034
341.0	0.0031
340.0	0.0027
339.0	0.0022
338.0	0.0018
337.0	0.0016
336.0	0.0010
335.0	0.0002
334.0	-0.0004
333.0	-0.0007
332.0	-0.0010
331.0	-0.0014
330.0	-0.0015
329.0	-0.0016
328.0	-0.0017
327.0	-0.0015
326.0	-0.0013
325.0	-0.0009
324.0	-0.0003
323.0	0.0002
322.0	0.0007
321.0	0.0015
320.0	0.0024
319.0	0.0035
318.0	0.0047
317.0	0.0059
316.0	0.0073
315.0	0.0088
314.0	0.0105
313.0	0.0125
312.0	0.0144
311.0	0.0162
310.0	0.0179
309.0	0.0192
308.0	0.0199
307.0	0.0204
306.0	0.0209
305.0	0.0209
304.0	0.0207
303.0	0.0204
302.0	0.0200
301.0	0.0197
300.0	0.0194
299.0	0.0192
298.0	0.0187
297.0	0.0183
296.0	0.0181
295.0	0.0179
294.0	0.0175
293.0	0.0173
292.0	0.0173
291.0	0.0172
290.0	0.0173
289.0	0.0176
288.0	0.0180
287.0	0.0183
286.0	0.0189
285.0	0.0194
284.0	0.0201
283.0	0.0209
282.0	0.0215
281.0	0.0223
280.0	0.0230
279.0	0.0237
278.0	0.0244
277.0	0.0251
276.0	0.0257
275.0	0.0262
274.0	0.0267
273.0	0.0268
272.0	0.0270
271.0	0.0276
270.0	0.0283
269.0	0.0291
268.0	0.0304
267.0	0.0321
266.0	0.0345
265.0	0.0374
264.0	0.0407
263.0	0.0439
262.0	0.0470
261.0	0.0498
260.0	0.0525
259.0	0.0545
258.0	0.0558
257.0	0.0571
256.0	0.0588
255.0	0.0609
254.0	0.0635
253.0	0.0668
252.0	0.0709
251.0	0.0759
250.0	0.0828
249.0	0.0917
248.0	0.1034
247.0	0.1195
246.0	0.1415
245.0	0.1713
244.0	0.2116
243.0	0.2666
242.0	0.3417
241.0	0.4409
240.0	0.5702
239.0	0.7368
238.0	0.9477
237.0	1.2055
236.0	1.5157
235.0	1.8570
234.0	2.1487
233.0	2.2924
232.0	2.2518
231.0	2.1487
230.0	2.0223
229.0	1.8570
228.0	1.6576
227.0	1.4271
226.0	1.1439
225.0	0.8428
224.0	0.5789
223.0	0.3602
222.0	0.2063
221.0	0.1180
220.0	0.0808
219.0	0.0763
218.0	0.0674
217.0	0.0499
216.0	0.0509
215.0	0.0740
214.0	0.0907
213.0	0.0835
212.0	0.0771
211.0	0.0788
210.0	0.0829
209.0	0.0758
208.0	0.0694
207.0	0.0773
206.0	0.0767
205.0	0.0750
204.0	0.0790
203.0	0.0810
202.0	0.0926
201.0	0.1060
200.0	0.1124
