Sample:	
Run Date:	20-02-2020 17:26:57
Operator:	Hitachi spectro
Comment:	

Instrument
Model:	U-2010 Spectrophotometer
Serial Number:	9709-014
ROM Version:	2550 00

Instrument Parameters
Measurement Type:	Wavelength Scan
Data Mode:	Abs
Starting Wavelength:	700.0 nm
Ending Wavelength:	200.0 nm
Scan Speed:	100 nm/min
Sampling Interval:	1.0 nm
Slit Width:	2 nm
Lamp Change:	370.0 nm
Baseline Correction:	System
Response:	Medium

Peak Integration
Area Method:	Rectangular
Threshold:	10.0% based on 1 highest peaks
Peak Width:	10.0 nm
Peaks
Peak #	Start (nm)	Apex (nm)	End (nm)	Height (Abs)	Area (Abs*nm)
1	252.0	227.0	209.0	2.6097	38.4410

Data Points
nm	Abs
600.0	0.0104
599.0	0.0105
598.0	0.0105
597.0	0.0103
596.0	0.0102
595.0	0.0102
594.0	0.0100
593.0	0.0099
592.0	0.0097
591.0	0.0097
590.0	0.0097
589.0	0.0097
588.0	0.0097
587.0	0.0100
586.0	0.0101
585.0	0.0102
584.0	0.0104
583.0	0.0109
582.0	0.0110
581.0	0.0116
580.0	0.0120
579.0	0.0124
578.0	0.0128
577.0	0.0134
576.0	0.0138
575.0	0.0141
574.0	0.0148
573.0	0.0154
572.0	0.0160
571.0	0.0164
570.0	0.0169
569.0	0.0174
568.0	0.0179
567.0	0.0182
566.0	0.0185
565.0	0.0191
564.0	0.0194
563.0	0.0197
562.0	0.0200
561.0	0.0201
560.0	0.0203
559.0	0.0205
558.0	0.0206
557.0	0.0209
556.0	0.0209
555.0	0.0209
554.0	0.0209
553.0	0.0209
552.0	0.0209
551.0	0.0209
550.0	0.0209
549.0	0.0209
548.0	0.0206
547.0	0.0205
546.0	0.0204
545.0	0.0203
544.0	0.0201
543.0	0.0200
542.0	0.0199
541.0	0.0199
540.0	0.0197
539.0	0.0196
538.0	0.0195
537.0	0.0194
536.0	0.0194
535.0	0.0194
534.0	0.0194
533.0	0.0192
532.0	0.0191
531.0	0.0192
530.0	0.0194
529.0	0.0194
528.0	0.0192
527.0	0.0191
526.0	0.0191
525.0	0.0191
524.0	0.0191
523.0	0.0191
522.0	0.0191
521.0	0.0191
520.0	0.0192
519.0	0.0193
518.0	0.0192
517.0	0.0191
516.0	0.0191
515.0	0.0191
514.0	0.0192
513.0	0.0194
512.0	0.0194
511.0	0.0192
510.0	0.0191
509.0	0.0191
508.0	0.0191
507.0	0.0191
506.0	0.0190
505.0	0.0189
504.0	0.0187
503.0	0.0184
502.0	0.0182
501.0	0.0181
500.0	0.0180
499.0	0.0176
498.0	0.0171
497.0	0.0167
496.0	0.0164
495.0	0.0161
494.0	0.0156
493.0	0.0150
492.0	0.0146
491.0	0.0141
490.0	0.0137
489.0	0.0132
488.0	0.0126
487.0	0.0120
486.0	0.0116
485.0	0.0110
484.0	0.0104
483.0	0.0100
482.0	0.0093
481.0	0.0088
480.0	0.0082
479.0	0.0078
478.0	0.0073
477.0	0.0067
476.0	0.0064
475.0	0.0060
474.0	0.0055
473.0	0.0049
472.0	0.0045
471.0	0.0041
470.0	0.0036
469.0	0.0032
468.0	0.0029
467.0	0.0024
466.0	0.0020
465.0	0.0017
464.0	0.0013
463.0	0.0009
462.0	0.0005
461.0	0.0003
460.0	0.0000
459.0	-0.0003
458.0	-0.0005
457.0	-0.0007
456.0	-0.0009
455.0	-0.0013
454.0	-0.0016
453.0	-0.0018
452.0	-0.0020
451.0	-0.0021
450.0	-0.0021
449.0	-0.0023
448.0	-0.0024
447.0	-0.0024
446.0	-0.0026
445.0	-0.0027
444.0	-0.0029
443.0	-0.0032
442.0	-0.0033
441.0	-0.0033
440.0	-0.0033
439.0	-0.0033
438.0	-0.0033
437.0	-0.0033
436.0	-0.0033
435.0	-0.0035
434.0	-0.0036
433.0	-0.0036
432.0	-0.0036
431.0	-0.0036
430.0	-0.0036
429.0	-0.0036
428.0	-0.0036
427.0	-0.0036
426.0	-0.0036
425.0	-0.0036
424.0	-0.0036
423.0	-0.0036
422.0	-0.0036
421.0	-0.0036
420.0	-0.0036
419.0	-0.0036
418.0	-0.0036
417.0	-0.0036
416.0	-0.0036
415.0	-0.0036
414.0	-0.0036
413.0	-0.0036
412.0	-0.0036
411.0	-0.0036
410.0	-0.0036
409.0	-0.0036
408.0	-0.0036
407.0	-0.0036
406.0	-0.0036
405.0	-0.0036
404.0	-0.0036
403.0	-0.0036
402.0	-0.0036
401.0	-0.0036
400.0	-0.0036
399.0	-0.0035
398.0	-0.0034
397.0	-0.0035
396.0	-0.0036
395.0	-0.0035
394.0	-0.0033
393.0	-0.0032
392.0	-0.0032
391.0	-0.0033
390.0	-0.0033
389.0	-0.0032
388.0	-0.0029
387.0	-0.0029
386.0	-0.0029
385.0	-0.0029
384.0	-0.0029
383.0	-0.0029
382.0	-0.0029
381.0	-0.0066
380.0	-0.0144
379.0	-0.0186
378.0	-0.0192
377.0	-0.0191
376.0	-0.0187
375.0	-0.0189
374.0	-0.0193
373.0	-0.0193
372.0	-0.0191
371.0	-0.0137
370.0	-0.0031
369.0	0.0024
368.0	0.0024
367.0	0.0021
366.0	0.0020
365.0	0.0021
364.0	0.0024
363.0	0.0024
362.0	0.0024
361.0	0.0024
360.0	0.0024
359.0	0.0026
358.0	0.0027
357.0	0.0029
356.0	0.0029
355.0	0.0029
354.0	0.0030
353.0	0.0032
352.0	0.0033
351.0	0.0035
350.0	0.0035
349.0	0.0035
348.0	0.0035
347.0	0.0035
346.0	0.0036
345.0	0.0037
344.0	0.0037
343.0	0.0037
342.0	0.0038
341.0	0.0041
340.0	0.0044
339.0	0.0046
338.0	0.0046
337.0	0.0047
336.0	0.0049
335.0	0.0051
334.0	0.0051
333.0	0.0052
332.0	0.0058
331.0	0.0062
330.0	0.0065
329.0	0.0067
328.0	0.0070
327.0	0.0075
326.0	0.0078
325.0	0.0078
324.0	0.0079
323.0	0.0082
322.0	0.0085
321.0	0.0086
320.0	0.0086
319.0	0.0086
318.0	0.0086
317.0	0.0083
316.0	0.0083
315.0	0.0082
314.0	0.0082
313.0	0.0079
312.0	0.0078
311.0	0.0077
310.0	0.0076
309.0	0.0074
308.0	0.0070
307.0	0.0067
306.0	0.0065
305.0	0.0064
304.0	0.0062
303.0	0.0061
302.0	0.0061
301.0	0.0060
300.0	0.0060
299.0	0.0060
298.0	0.0061
297.0	0.0064
296.0	0.0066
295.0	0.0070
294.0	0.0073
293.0	0.0077
292.0	0.0082
291.0	0.0089
290.0	0.0095
289.0	0.0104
288.0	0.0113
287.0	0.0122
286.0	0.0129
285.0	0.0139
284.0	0.0148
283.0	0.0154
282.0	0.0160
281.0	0.0166
280.0	0.0170
279.0	0.0173
278.0	0.0176
277.0	0.0176
276.0	0.0174
275.0	0.0173
274.0	0.0173
273.0	0.0172
272.0	0.0173
271.0	0.0173
270.0	0.0173
269.0	0.0171
268.0	0.0169
267.0	0.0167
266.0	0.0167
265.0	0.0167
264.0	0.0166
263.0	0.0164
262.0	0.0164
261.0	0.0163
260.0	0.0164
259.0	0.0164
258.0	0.0164
257.0	0.0166
256.0	0.0170
255.0	0.0176
254.0	0.0183
253.0	0.0191
252.0	0.0202
251.0	0.0215
250.0	0.0232
249.0	0.0251
248.0	0.0275
247.0	0.0306
246.0	0.0344
245.0	0.0394
244.0	0.0463
243.0	0.0556
242.0	0.0684
241.0	0.0860
240.0	0.1102
239.0	0.1432
238.0	0.1883
237.0	0.2500
236.0	0.3339
235.0	0.4471
234.0	0.6003
233.0	0.8035
232.0	1.0696
231.0	1.4078
230.0	1.8125
229.0	2.2291
228.0	2.4949
227.0	2.6198
226.0	2.5686
225.0	2.5376
224.0	2.4685
223.0	2.4089
222.0	2.3372
221.0	2.2518
220.0	2.1192
219.0	1.9208
218.0	1.6737
217.0	1.3979
216.0	1.0501
215.0	0.6600
214.0	0.3393
213.0	0.1406
212.0	0.0499
211.0	0.0219
210.0	0.0119
209.0	0.0029
208.0	0.0032
207.0	0.0089
206.0	0.0150
205.0	0.0237
204.0	0.0407
203.0	0.0795
202.0	0.1037
201.0	0.1000
200.0	0.1057
