Sample:	
Run Date:	11-03-2020 15:53:07
Operator:	Hitachi spectro
Comment:	

Instrument
Model:	U-2010 Spectrophotometer
Serial Number:	9709-014
ROM Version:	2550 00

Instrument Parameters
Measurement Type:	Wavelength Scan
Data Mode:	Abs
Starting Wavelength:	900.0 nm
Ending Wavelength:	200.0 nm
Scan Speed:	100 nm/min
Sampling Interval:	1.0 nm
Slit Width:	2 nm
Lamp Change:	370.0 nm
Baseline Correction:	System
Response:	Medium

Peak Integration
Area Method:	Rectangular
Threshold:	10.0% based on 1 highest peaks
Peak Width:	10.0 nm
Peaks
Peak #	Start (nm)	Apex (nm)	End (nm)	Height (Abs)	Area (Abs*nm)
1	568.0	537.0	510.0	0.3082	7.8701
2	251.0	231.0	228.0	2.5372	24.6682
3	228.0	227.0	201.0	2.4451	50.5106

Data Points
nm	Abs
900.0	0.0005
899.0	0.0004
898.0	0.0003
897.0	0.0004
896.0	0.0005
895.0	0.0005
894.0	0.0004
893.0	0.0004
892.0	0.0004
891.0	0.0004
890.0	0.0005
889.0	0.0005
888.0	0.0004
887.0	0.0004
886.0	0.0004
885.0	0.0003
884.0	0.0002
883.0	0.0002
882.0	0.0002
881.0	0.0003
880.0	0.0003
879.0	0.0003
878.0	0.0003
877.0	0.0003
876.0	0.0003
875.0	0.0003
874.0	0.0003
873.0	0.0004
872.0	0.0004
871.0	0.0004
870.0	0.0003
869.0	0.0003
868.0	0.0003
867.0	0.0003
866.0	0.0003
865.0	0.0003
864.0	0.0003
863.0	0.0003
862.0	0.0003
861.0	0.0003
860.0	0.0003
859.0	0.0003
858.0	0.0004
857.0	0.0004
856.0	0.0004
855.0	0.0003
854.0	0.0004
853.0	0.0005
852.0	0.0005
851.0	0.0005
850.0	0.0005
849.0	0.0004
848.0	0.0005
847.0	0.0005
846.0	0.0004
845.0	0.0004
844.0	0.0004
843.0	0.0005
842.0	0.0005
841.0	0.0005
840.0	0.0005
839.0	0.0005
838.0	0.0005
837.0	0.0005
836.0	0.0005
835.0	0.0005
834.0	0.0005
833.0	0.0005
832.0	0.0005
831.0	0.0005
830.0	0.0005
829.0	0.0005
828.0	0.0005
827.0	0.0005
826.0	0.0005
825.0	0.0005
824.0	0.0005
823.0	0.0005
822.0	0.0005
821.0	0.0005
820.0	0.0005
819.0	0.0005
818.0	0.0005
817.0	0.0005
816.0	0.0005
815.0	0.0005
814.0	0.0005
813.0	0.0005
812.0	0.0005
811.0	0.0005
810.0	0.0005
809.0	0.0005
808.0	0.0005
807.0	0.0005
806.0	0.0005
805.0	0.0005
804.0	0.0005
803.0	0.0005
802.0	0.0005
801.0	0.0005
800.0	0.0005
799.0	0.0005
798.0	0.0005
797.0	0.0005
796.0	0.0005
795.0	0.0005
794.0	0.0005
793.0	0.0005
792.0	0.0005
791.0	0.0005
790.0	0.0005
789.0	0.0005
788.0	0.0005
787.0	0.0005
786.0	0.0005
785.0	0.0005
784.0	0.0005
783.0	0.0005
782.0	0.0007
781.0	0.0007
780.0	0.0007
779.0	0.0005
778.0	0.0005
777.0	0.0005
776.0	0.0005
775.0	0.0005
774.0	0.0005
773.0	0.0005
772.0	0.0005
771.0	0.0005
770.0	0.0005
769.0	0.0005
768.0	0.0005
767.0	0.0005
766.0	0.0005
765.0	0.0005
764.0	0.0005
763.0	0.0005
762.0	0.0005
761.0	0.0005
760.0	0.0005
759.0	0.0005
758.0	0.0005
757.0	0.0005
756.0	0.0005
755.0	0.0005
754.0	0.0005
753.0	0.0005
752.0	0.0005
751.0	0.0005
750.0	0.0005
749.0	0.0004
748.0	0.0003
747.0	0.0003
746.0	0.0003
745.0	0.0003
744.0	0.0003
743.0	0.0003
742.0	0.0003
741.0	0.0004
740.0	0.0005
739.0	0.0005
738.0	0.0005
737.0	0.0005
736.0	0.0005
735.0	0.0007
734.0	0.0007
733.0	0.0007
732.0	0.0005
731.0	0.0007
730.0	0.0009
729.0	0.0009
728.0	0.0007
727.0	0.0007
726.0	0.0007
725.0	0.0007
724.0	0.0005
723.0	0.0007
722.0	0.0007
721.0	0.0007
720.0	0.0005
719.0	0.0005
718.0	0.0005
717.0	0.0005
716.0	0.0005
715.0	0.0005
714.0	0.0005
713.0	0.0005
712.0	0.0005
711.0	0.0005
710.0	0.0005
709.0	0.0005
708.0	0.0005
707.0	0.0005
706.0	0.0005
705.0	0.0005
704.0	0.0005
703.0	0.0005
702.0	0.0005
701.0	0.0005
700.0	0.0005
699.0	0.0005
698.0	0.0005
697.0	0.0005
696.0	0.0005
695.0	0.0005
694.0	0.0005
693.0	0.0005
692.0	0.0005
691.0	0.0005
690.0	0.0005
689.0	0.0005
688.0	0.0005
687.0	0.0005
686.0	0.0005
685.0	0.0005
684.0	0.0005
683.0	0.0005
682.0	0.0005
681.0	0.0005
680.0	0.0005
679.0	0.0005
678.0	0.0005
677.0	0.0005
676.0	0.0005
675.0	0.0005
674.0	0.0005
673.0	0.0005
672.0	0.0005
671.0	0.0005
670.0	0.0005
669.0	0.0005
668.0	0.0005
667.0	0.0005
666.0	0.0005
665.0	0.0005
664.0	0.0005
663.0	0.0005
662.0	0.0005
661.0	0.0005
660.0	0.0005
659.0	0.0005
658.0	0.0005
657.0	0.0005
656.0	0.0005
655.0	0.0005
654.0	0.0005
653.0	0.0005
652.0	0.0005
651.0	0.0005
650.0	0.0005
649.0	0.0005
648.0	0.0005
647.0	0.0005
646.0	0.0005
645.0	0.0005
644.0	0.0005
643.0	0.0005
642.0	0.0005
641.0	0.0005
640.0	0.0005
639.0	0.0005
638.0	0.0005
637.0	0.0005
636.0	0.0005
635.0	0.0005
634.0	0.0005
633.0	0.0005
632.0	0.0005
631.0	0.0005
630.0	0.0005
629.0	0.0005
628.0	0.0005
627.0	0.0005
626.0	0.0005
625.0	0.0005
624.0	0.0005
623.0	0.0005
622.0	0.0005
621.0	0.0005
620.0	0.0005
619.0	0.0005
618.0	0.0005
617.0	0.0005
616.0	0.0005
615.0	0.0005
614.0	0.0005
613.0	0.0005
612.0	0.0005
611.0	0.0005
610.0	0.0005
609.0	0.0005
608.0	0.0005
607.0	0.0005
606.0	0.0005
605.0	0.0005
604.0	0.0005
603.0	0.0005
602.0	0.0009
601.0	0.0015
600.0	0.0020
599.0	0.0020
598.0	0.0020
597.0	0.0020
596.0	0.0020
595.0	0.0020
594.0	0.0020
593.0	0.0020
592.0	0.0020
591.0	0.0020
590.0	0.0020
589.0	0.0020
588.0	0.0021
587.0	0.0024
586.0	0.0024
585.0	0.0024
584.0	0.0026
583.0	0.0027
582.0	0.0032
581.0	0.0035
580.0	0.0036
579.0	0.0038
578.0	0.0041
577.0	0.0045
576.0	0.0049
575.0	0.0055
574.0	0.0061
573.0	0.0068
572.0	0.0078
571.0	0.0092
570.0	0.0107
569.0	0.0125
568.0	0.0144
567.0	0.0169
566.0	0.0199
565.0	0.0233
564.0	0.0271
563.0	0.0316
562.0	0.0369
561.0	0.0434
560.0	0.0507
559.0	0.0590
558.0	0.0685
557.0	0.0791
556.0	0.0907
555.0	0.1037
554.0	0.1180
553.0	0.1341
552.0	0.1517
551.0	0.1707
550.0	0.1904
549.0	0.2110
548.0	0.2322
547.0	0.2529
546.0	0.2731
545.0	0.2926
544.0	0.3111
543.0	0.3279
542.0	0.3428
541.0	0.3557
540.0	0.3658
539.0	0.3730
538.0	0.3774
537.0	0.3788
536.0	0.3776
535.0	0.3741
534.0	0.3678
533.0	0.3590
532.0	0.3485
531.0	0.3359
530.0	0.3218
529.0	0.3072
528.0	0.2920
527.0	0.2765
526.0	0.2613
525.0	0.2463
524.0	0.2320
523.0	0.2181
522.0	0.2050
521.0	0.1924
520.0	0.1810
519.0	0.1707
518.0	0.1612
517.0	0.1531
516.0	0.1459
515.0	0.1393
514.0	0.1337
513.0	0.1289
512.0	0.1251
511.0	0.1218
510.0	0.1195
509.0	0.1175
508.0	0.1163
507.0	0.1153
506.0	0.1143
505.0	0.1136
504.0	0.1131
503.0	0.1123
502.0	0.1110
501.0	0.1095
500.0	0.1076
499.0	0.1056
498.0	0.1030
497.0	0.1002
496.0	0.0971
495.0	0.0936
494.0	0.0898
493.0	0.0857
492.0	0.0814
491.0	0.0770
490.0	0.0723
489.0	0.0677
488.0	0.0635
487.0	0.0596
486.0	0.0557
485.0	0.0520
484.0	0.0485
483.0	0.0453
482.0	0.0425
481.0	0.0398
480.0	0.0374
479.0	0.0352
478.0	0.0334
477.0	0.0317
476.0	0.0302
475.0	0.0288
474.0	0.0276
473.0	0.0265
472.0	0.0253
471.0	0.0243
470.0	0.0234
469.0	0.0226
468.0	0.0217
467.0	0.0209
466.0	0.0200
465.0	0.0192
464.0	0.0184
463.0	0.0174
462.0	0.0164
461.0	0.0157
460.0	0.0149
459.0	0.0141
458.0	0.0135
457.0	0.0127
456.0	0.0120
455.0	0.0114
454.0	0.0107
453.0	0.0100
452.0	0.0094
451.0	0.0090
450.0	0.0085
449.0	0.0079
448.0	0.0076
447.0	0.0073
446.0	0.0067
445.0	0.0065
444.0	0.0064
443.0	0.0063
442.0	0.0060
441.0	0.0058
440.0	0.0058
439.0	0.0056
438.0	0.0056
437.0	0.0053
436.0	0.0052
435.0	0.0052
434.0	0.0050
433.0	0.0049
432.0	0.0049
431.0	0.0049
430.0	0.0049
429.0	0.0049
428.0	0.0049
427.0	0.0049
426.0	0.0050
425.0	0.0052
424.0	0.0052
423.0	0.0053
422.0	0.0056
421.0	0.0056
420.0	0.0056
419.0	0.0056
418.0	0.0058
417.0	0.0059
416.0	0.0061
415.0	0.0064
414.0	0.0064
413.0	0.0064
412.0	0.0064
411.0	0.0064
410.0	0.0065
409.0	0.0067
408.0	0.0070
407.0	0.0072
406.0	0.0075
405.0	0.0076
404.0	0.0077
403.0	0.0078
402.0	0.0078
401.0	0.0078
400.0	0.0080
399.0	0.0083
398.0	0.0085
397.0	0.0085
396.0	0.0083
395.0	0.0085
394.0	0.0086
393.0	0.0086
392.0	0.0086
391.0	0.0087
390.0	0.0087
389.0	0.0087
388.0	0.0085
387.0	0.0083
386.0	0.0083
385.0	0.0082
384.0	0.0082
383.0	0.0079
382.0	0.0078
381.0	0.0090
380.0	0.0115
379.0	0.0126
378.0	0.0122
377.0	0.0122
376.0	0.0122
375.0	0.0122
374.0	0.0125
373.0	0.0127
372.0	0.0129
371.0	0.0110
370.0	0.0073
369.0	0.0056
368.0	0.0056
367.0	0.0056
366.0	0.0056
365.0	0.0060
364.0	0.0066
363.0	0.0073
362.0	0.0078
361.0	0.0082
360.0	0.0087
359.0	0.0093
358.0	0.0100
357.0	0.0109
356.0	0.0116
355.0	0.0122
354.0	0.0129
353.0	0.0137
352.0	0.0144
351.0	0.0149
350.0	0.0151
349.0	0.0153
348.0	0.0156
347.0	0.0157
346.0	0.0156
345.0	0.0152
344.0	0.0149
343.0	0.0146
342.0	0.0144
341.0	0.0146
340.0	0.0146
339.0	0.0150
338.0	0.0160
337.0	0.0171
336.0	0.0183
335.0	0.0196
334.0	0.0212
333.0	0.0229
332.0	0.0247
331.0	0.0263
330.0	0.0281
329.0	0.0301
328.0	0.0321
327.0	0.0342
326.0	0.0361
325.0	0.0379
324.0	0.0396
323.0	0.0411
322.0	0.0424
321.0	0.0434
320.0	0.0442
319.0	0.0446
318.0	0.0446
317.0	0.0443
316.0	0.0437
315.0	0.0431
314.0	0.0425
313.0	0.0418
312.0	0.0410
311.0	0.0401
310.0	0.0391
309.0	0.0382
308.0	0.0373
307.0	0.0363
306.0	0.0352
305.0	0.0344
304.0	0.0335
303.0	0.0326
302.0	0.0317
301.0	0.0308
300.0	0.0300
299.0	0.0294
298.0	0.0290
297.0	0.0287
296.0	0.0285
295.0	0.0284
294.0	0.0284
293.0	0.0285
292.0	0.0288
291.0	0.0294
290.0	0.0302
289.0	0.0310
288.0	0.0322
287.0	0.0334
286.0	0.0344
285.0	0.0358
284.0	0.0374
283.0	0.0391
282.0	0.0411
281.0	0.0430
280.0	0.0448
279.0	0.0468
278.0	0.0488
277.0	0.0510
276.0	0.0534
275.0	0.0562
274.0	0.0593
273.0	0.0629
272.0	0.0673
271.0	0.0727
270.0	0.0788
269.0	0.0851
268.0	0.0911
267.0	0.0964
266.0	0.1001
265.0	0.1024
264.0	0.1033
263.0	0.1033
262.0	0.1030
261.0	0.1028
260.0	0.1031
259.0	0.1041
258.0	0.1057
257.0	0.1076
256.0	0.1096
255.0	0.1116
254.0	0.1135
253.0	0.1160
252.0	0.1196
251.0	0.1249
250.0	0.1328
249.0	0.1442
248.0	0.1598
247.0	0.1805
246.0	0.2072
245.0	0.2418
244.0	0.2877
243.0	0.3473
242.0	0.4257
241.0	0.5289
240.0	0.6629
239.0	0.8342
238.0	1.0535
237.0	1.3316
236.0	1.6676
235.0	2.0458
234.0	2.4089
233.0	2.6576
232.0	2.7696
231.0	2.7696
230.0	2.7696
229.0	2.6990
228.0	2.6990
227.0	2.6990
226.0	2.6990
225.0	2.6576
224.0	2.6576
223.0	2.6198
222.0	2.5686
221.0	2.5686
220.0	2.5376
219.0	2.4949
218.0	2.4685
217.0	2.4318
216.0	2.4089
215.0	2.3565
214.0	2.3098
213.0	2.2676
212.0	2.2147
211.0	2.1487
210.0	2.0809
209.0	2.0000
208.0	1.9136
207.0	1.7986
206.0	1.6635
205.0	1.4949
204.0	1.2924
203.0	1.0685
202.0	0.8193
201.0	0.5627
200.0	0.3991
