Title=200311_em_NaOH-MeCN_2,0uM_AT488
Comment=
Signature=ISS_Experiment_Ver_1_0
Timestamp=Wed Mar 11 17:20:46 2020
Product=Vinci2
SoftwareVersion=BETA.2.4
BuildNumber=234
RealTimeStart=23077.4364896

AcquisitionType=Photon Counting
AcquisitionFormat=L
AcquisitionSide=Right
Detector Gains=(0.0, 0.0)

Measurable=Intensity
MaxIterations=10

RightEmissionWavelengthBandwidth=8.0
ExcitationWavelengthBandwidth=8.0
Visualization=Y:Intensity,X:EmissionWavelength,PlotType:2D


EmissionWavelength=type:numeric,unit:nm,from:400.0,to:800.0,step:1.0
ExcitationWavelength=type:numeric,unit:nm,fixed:511.0

Space=EmissionWavelength
Columns=EmissionWavelength,Intensity,IntensityStdError,RealTime
[Data]
        400.00	    0.36885286	     1.4190219	     23085.981
        401.00	     1.5166957	     1.4654595	     23087.461
        402.00	    -1.5823154	    0.87906413	     23088.671
        403.00	   0.022854282	     1.6781435	     23089.891
        404.00	    0.82152392	     1.3607284	     23091.091
        405.00	    0.82056892	     1.2484559	     23092.301
        406.00	   -0.88645540	     1.2246139	     23093.511
        407.00	    0.24971703	     1.5805271	     23094.721
        408.00	    0.36276318	     1.1610154	     23095.931
        409.00	    -1.1102541	     1.6203242	     23097.141
        410.00	    0.47583289	     1.1209129	     23098.351
        411.00	     1.4957091	     1.3428438	     23099.561
        412.00	  -0.090701312	     1.2849352	     23100.771
        413.00	     2.0641364	     2.0668488	     23101.981
        414.00	    0.13615674	     1.1245086	     23103.191
        415.00	     2.8640643	     1.8774793	     23104.401
        416.00	    0.13653100	     1.4210597	     23105.611
        417.00	     3.0972248	     1.4403360	     23106.821
        418.00	     1.5055605	     1.6058333	     23108.031
        419.00	    -1.1192266	     1.2631774	     23109.241
        420.00	    0.82391464	     1.7228345	     23110.451
        421.00	     2.2044411	     1.5384972	     23111.661
        422.00	    0.36815244	     1.0175196	     23112.871
        423.00	    -2.3941822	     1.3812589	     23114.081
        424.00	    0.36849374	     1.2283125	     23115.291
        425.00	    0.83267344	     1.5419878	     23116.501
        426.00	    -1.4825958	     1.0782981	     23117.710
        427.00	    0.83721782	     1.6805972	     23118.921
        428.00	     2.4697218	     1.2426273	     23120.130
        429.00	    -2.0781385	     1.2700126	     23121.341
        430.00	    -2.6734464	     1.2482899	     23122.550
        431.00	     3.5544431	     1.7015228	     23123.760
        432.00	    0.25977123	     1.9699308	     23124.971
        433.00	    0.26053504	     1.5715813	     23126.181
        434.00	    0.61762621	     1.7330012	     23127.390
        435.00	  -0.095365379	     1.3856268	     23128.600
        436.00	    0.50165782	     1.5321969	     23129.810
        437.00	  -0.095898858	     1.5862817	     23131.030
        438.00	   -0.57826862	     1.5840611	     23132.230
        439.00	    -1.3052880	     1.5582141	     23133.440
        440.00	     1.9661385	     2.5228813	     23134.650
        441.00	   -0.34119460	     1.5520271	     23135.860
        442.00	     1.7378358	     1.1253600	     23137.070
        443.00	     1.3775953	     2.0269031	     23138.280
        444.00	     1.1354357	     1.3743127	     23139.490
        445.00	     1.6332623	     1.5780883	     23140.701
        446.00	     2.6358317	     1.7699988	     23141.910
        447.00	    0.14983526	     1.7381400	     23143.120
        448.00	     1.4071789	     2.0619415	     23144.330
        449.00	    0.53042395	     1.6738576	     23145.540
        450.00	    0.53291660	     1.7340937	     23146.750
        451.00	     1.2973081	     2.1370960	     23147.960
        452.00	    0.92142332	     1.3888597	     23149.170
        453.00	   -0.74425408	    0.91838005	     23150.380
        454.00	    -1.2649523	     1.2024093	     23151.590
        455.00	     1.1929206	     1.0006561	     23152.800
        456.00	   -0.36521287	     1.9540806	     23154.010
        457.00	    0.81245791	    0.92557390	     23155.220
        458.00	     2.1348838	     2.5192422	     23156.430
        459.00	    0.82081945	     2.3719660	     23157.640
        460.00	     1.0887288	     2.0228041	     23158.850
        461.00	    -2.1093346	     1.7694287	     23160.060
        462.00	    0.83382408	     1.6094888	     23161.270
        463.00	     3.1308425	     1.8785606	     23162.480
        464.00	   0.027139563	     1.9825095	     23163.690
        465.00	     3.5812478	     1.4328805	     23164.910
        466.00	     2.9103684	     1.2481803	     23166.110
        467.00	     6.3689691	     2.0390542	     23167.320
        468.00	     3.4970908	     1.9162129	     23168.530
        469.00	     4.3463409	     1.7888128	     23169.740
        470.00	     3.2443469	     2.3695414	     23170.950
        471.00	    0.73324229	     1.1853633	     23172.160
        472.00	     5.5535324	     2.0013136	     23173.370
        473.00	     3.3027083	     1.9004794	     23174.580
        474.00	     4.6095323	     1.6287060	     23175.790
        475.00	     7.5196500	     2.1820560	     23177.000
        476.00	     3.7932818	     1.6358843	     23178.210
        477.00	     7.8880479	     1.4068474	     23179.420
        478.00	     5.4383551	     1.9247116	     23180.630
        479.00	     7.6735918	     1.4074530	     23181.840
        480.00	     8.1680816	     1.7199924	     23183.050
        481.00	     5.0907425	     1.3322981	     23184.260
        482.00	     8.8694926	     2.2644742	     23185.470
        483.00	     3.3464069	     1.2152971	     23186.680
        484.00	     7.0044317	     2.2310823	     23187.890
        485.00	     4.9110786	     2.1599235	     23189.100
        486.00	     7.8510480	     1.6828719	     23190.310
        487.00	     5.1152274	     2.3219136	     23191.520
        488.00	     1.4282089	     1.7441018	     23192.730
        489.00	     7.0585156	     1.1592965	     23193.940
        490.00	     3.6409481	     1.9034840	     23195.150
        491.00	     6.1915588	     1.3067215	     23196.360
        492.00	     10.659650	     2.3168772	     23197.570
        493.00	     12.964275	     1.3079448	     23198.780
        494.00	     12.871354	     2.1405446	     23199.991
        495.00	     13.406714	     2.4283888	     23201.200
        496.00	     14.104370	     1.8043674	     23202.410
        497.00	     15.892601	     3.3062171	     23203.620
        498.00	     15.335783	     2.3555502	     23204.840
        499.00	     13.691882	     1.9222521	     23206.040
        500.00	     12.179313	     1.8883188	     23207.250
        501.00	     18.509843	     2.2949039	     23208.460
        502.00	     21.071252	     2.6353659	     23209.670
        503.00	     24.915734	     2.6919897	     23210.880
        504.00	     31.389936	     2.8626638	     23212.090
        505.00	     49.508931	     3.4945327	     23213.300
        506.00	     132.95001	     3.4008713	     23214.510
        507.00	     401.71100	     7.2613052	     23215.730
        508.00	     991.91492	     15.009980	     23216.940
        509.00	     2004.0830	     12.599267	     23218.140
        510.00	     3195.2038	     22.675378	     23219.350
        511.00	     4220.8174	     11.699700	     23220.560
        512.00	     4611.7150	     22.230052	     23221.770
        513.00	     4175.7255	     16.964018	     23222.980
        514.00	     3168.4097	     18.380042	     23224.190
        515.00	     1934.0416	     15.389176	     23225.400
        516.00	     1002.7372	     7.2245862	     23226.610
        517.00	     427.35398	     6.2856664	     23227.830
        518.00	     209.75148	     3.7520996	     23229.030
        519.00	     136.39723	     2.8939906	     23230.240
        520.00	     132.73215	     5.1868739	     23231.450
        521.00	     144.39773	     3.0110460	     23232.660
        522.00	     145.22284	     2.2588241	     23233.870
        523.00	     143.17384	     3.0330241	     23235.080
        524.00	     146.58031	     3.8409211	     23236.290
        525.00	     148.33933	     3.5259422	     23237.500
        526.00	     149.85952	     2.8144978	     23238.710
        527.00	     147.39009	     4.2718340	     23239.920
        528.00	     150.67825	     4.2071026	     23241.130
        529.00	     150.04842	     3.7656945	     23242.340
        530.00	     146.83320	     4.9105116	     23243.550
        531.00	     141.35983	     3.3797269	     23244.760
        532.00	     144.74734	     4.5571448	     23245.970
        533.00	     137.49246	     6.4666241	     23247.180
        534.00	     126.60477	     4.2891012	     23248.390
        535.00	     137.28869	     3.5406988	     23249.600
        536.00	     122.33235	     5.7600765	     23250.810
        537.00	     130.66652	     2.9939614	     23252.020
        538.00	     121.21684	     3.7165873	     23253.230
        539.00	     112.29144	     3.6369257	     23254.450
        540.00	     117.60214	     4.1946320	     23255.650
        541.00	     110.01242	     4.4198806	     23256.860
        542.00	     100.88044	     3.3277606	     23258.070
        543.00	     106.40711	     3.0615856	     23259.280
        544.00	     106.22743	     3.7610842	     23260.490
        545.00	     88.767793	     2.3069552	     23261.700
        546.00	     96.848474	     4.1007490	     23266.320
        547.00	     86.326131	     3.7937035	     23267.530
        548.00	     85.140315	     4.1976414	     23268.740
        549.00	     88.679038	     3.6953980	     23269.950
        550.00	     79.546569	     4.2160635	     23271.160
        551.00	     82.262428	     3.9447203	     23272.369
        552.00	     77.326613	     3.6633934	     23273.580
        553.00	     69.372943	     2.9734239	     23274.790
        554.00	     72.579448	     2.9754765	     23276.000
        555.00	     72.662759	     3.0937679	     23277.220
        556.00	     71.751921	     3.2124348	     23278.420
        557.00	     77.311506	     3.8434372	     23279.630
        558.00	     68.549029	     3.1708704	     23280.840
        559.00	     62.128993	     4.4328578	     23282.049
        560.00	     64.943005	     3.0083298	     23283.259
        561.00	     62.999485	     2.8971975	     23284.470
        562.00	     63.008432	     5.4096825	     23285.680
        563.00	     57.261163	     3.3449895	     23286.889
        564.00	     62.734933	     3.7990440	     23288.099
        565.00	     56.147290	     4.0808286	     23289.309
        566.00	     51.841121	     4.8330781	     23290.519
        567.00	     49.382775	     2.9328389	     23291.729
        568.00	     54.940186	     3.2657166	     23292.940
        569.00	     55.467191	     3.7471387	     23294.150
        570.00	     50.309885	     4.1648630	     23295.359
        571.00	     45.701558	     3.2271445	     23296.569
        572.00	     44.740761	     4.0970345	     23297.789
        573.00	     47.538110	     4.4127031	     23298.989
        574.00	     51.114356	     4.4613906	     23300.199
        575.00	     47.251281	     3.5301586	     23301.410
        576.00	     46.989351	     3.4751019	     23302.619
        577.00	     46.830393	     3.3137261	     23303.830
        578.00	     38.817082	     3.3920024	     23305.039
        579.00	     39.716785	     4.9002142	     23306.249
        580.00	     35.819899	     3.9829251	     23307.459
        581.00	     36.097788	     3.8271401	     23308.669
        582.00	     27.961807	     4.1793532	     23309.879
        583.00	     25.866746	     3.6897011	     23311.089
        584.00	     37.821521	     3.7451776	     23312.299
        585.00	     33.083534	     3.1020370	     23313.519
        586.00	     23.813610	     3.2094192	     23314.719
        587.00	     31.209832	     5.8345666	     23315.929
        588.00	     30.504082	     3.9015931	     23317.139
        589.00	     22.224880	     4.6410736	     23318.349
        590.00	     17.469708	     2.6812920	     23319.559
        591.00	     27.195728	     3.2404329	     23320.769
        592.00	     19.324712	     2.7754053	     23321.979
        593.00	     18.810227	     5.3267902	     23323.189
        594.00	     24.663816	     3.1079031	     23324.399
        595.00	     19.747569	     5.1181838	     23325.609
        596.00	     21.216847	     4.9732700	     23326.819
        597.00	     11.324772	     3.5911559	     23328.029
        598.00	     20.583561	     5.6559689	     23329.239
        599.00	     24.720393	     2.9886250	     23330.449
        600.00	     17.262055	     3.3120156	     23331.659
        601.00	     28.150753	     4.5194468	     23332.869
        602.00	     21.978184	     4.3139612	     23334.079
        603.00	     21.134025	     1.7250044	     23335.290
        604.00	     15.450741	     3.9757185	     23336.499
        605.00	     22.918593	     6.0115879	     23337.709
        606.00	     19.618422	     5.2424242	     23338.919
        607.00	     18.370864	     4.1443316	     23340.129
        608.00	     15.666297	     4.7526184	     23341.339
        609.00	     15.831701	     3.4269397	     23342.549
        610.00	     6.1356477	     4.4961114	     23343.759
        611.00	     15.038592	     5.4615917	     23344.969
        612.00	     12.580089	     4.8193712	     23346.189
        613.00	     5.1904366	     4.6725577	     23347.389
        614.00	     10.169284	     4.8395486	     23348.599
        615.00	     15.641054	     5.5934835	     23349.809
        616.00	     16.580498	     4.1241327	     23351.019
        617.00	     7.3551319	     4.9897858	     23352.229
        618.00	     11.400656	     5.2516245	     23353.439
        619.00	     12.314102	     5.6478602	     23354.649
        620.00	     21.768489	     4.9537117	     23355.859
        621.00	     7.2819420	     5.0381638	     23357.069
        622.00	     11.494011	     8.5680170	     23358.279
        623.00	     13.719565	     5.4358446	     23359.489
        624.00	     11.334446	     5.1296558	     23360.699
        625.00	     5.9003831	     3.7949232	     23361.909
        626.00	    -1.8173292	     5.2422105	     23363.119
        627.00	     6.0438729	     4.7282750	     23364.329
        628.00	     12.737614	     8.4741154	     23365.539
        629.00	     11.566373	     6.9467812	     23366.749
        630.00	     7.1656498	     7.6204316	     23367.959
        631.00	     5.8744380	     5.0274409	     23369.169
        632.00	     6.4110686	     3.2813553	     23370.379
        633.00	     7.9057310	     3.4509143	     23371.589
        634.00	     8.4789962	     4.8811155	     23372.799
        635.00	     9.0485974	     4.9812768	     23374.009
        636.00	     7.2188359	     4.8667407	     23375.219
        637.00	     7.3115563	     5.7894338	     23376.429
        638.00	     8.4010608	     6.7995513	     23377.639
        639.00	    -2.1276061	     5.0685423	     23378.849
        640.00	     7.0714658	     7.8812832	     23380.059
        641.00	     14.960283	     5.8050936	     23381.269
        642.00	     14.094339	     6.1829945	     23382.479
        643.00	    -1.1705198	     6.8802317	     23383.689
        644.00	     18.218015	     6.4002054	     23384.900
        645.00	    -5.5678733	     3.9067748	     23386.109
        646.00	     7.0826261	     8.4119127	     23387.319
        647.00	    -11.323981	     5.5464416	     23388.529
        648.00	    -6.9211387	     7.6697184	     23389.739
        649.00	    -12.758456	     7.2315487	     23390.949
        650.00	    -1.8634849	     3.4940341	     23392.159
        651.00	     14.650400	     9.0580432	     23393.369
        652.00	     4.6699162	     10.682073	     23394.579
        653.00	     2.9158079	     8.7233921	     23395.789
        654.00	     7.8763330	     3.6691700	     23396.999
        655.00	     12.337033	     7.2574177	     23398.209
        656.00	     9.9858381	     8.0525102	     23399.419
        657.00	     4.3569349	     11.705794	     23400.629
        658.00	     8.3163320	     7.5022445	     23401.839
        659.00	    -4.0831720	     13.441336	     23403.049
        660.00	     7.8777761	     5.8413063	     23404.259
        661.00	     10.684949	     7.5473922	     23405.469
        662.00	     21.102225	     6.9120046	     23406.679
        663.00	    -2.9214164	     8.8014639	     23407.889
        664.00	    -8.6124513	     7.0789685	     23409.099
        665.00	    -13.726278	     9.3395495	     23410.309
        666.00	     4.9404859	     11.775063	     23411.519
        667.00	   -0.88450929	     12.963865	     23412.729
        668.00	     3.5842359	     8.8212253	     23413.939
        669.00	     5.1573432	     9.8043721	     23415.149
        670.00	    0.61567061	     10.439203	     23416.359
        671.00	     4.5241694	     12.526426	     23417.569
        672.00	     14.092219	     7.4874866	     23418.779
        673.00	     3.0552915	     11.335821	     23419.989
        674.00	   -0.16318986	     10.950487	     23421.199
        675.00	   -0.99372746	     6.3187393	     23422.409
        676.00	    -1.0071167	     8.4112687	     23423.629
        677.00	     6.6498030	     8.4540450	     23424.829
        678.00	     22.316449	     17.445523	     23426.039
        679.00	    -3.6882154	     9.7126870	     23427.249
        680.00	    -14.414482	     8.6420466	     23428.459
        681.00	    0.72391943	     9.7086506	     23429.669
        682.00	    -8.4476207	     7.5965374	     23430.879
        683.00	     1.6777293	     8.2727757	     23432.089
        684.00	     2.6451453	     12.983587	     23433.299
        685.00	     6.5304439	     14.543448	     23434.509
        686.00	    -10.898688	     12.240240	     23435.719
        687.00	     11.650798	     7.9874853	     23436.929
        688.00	    -4.2142098	     11.782339	     23438.139
        689.00	     9.9725435	     15.913607	     23439.348
        690.00	     8.0618421	     14.958020	     23440.559
        691.00	    -9.6585928	     19.721731	     23441.768
        692.00	    -19.385480	     8.0101897	     23442.979
        693.00	     12.761922	     11.105700	     23444.189
        694.00	    -14.514567	     8.9481245	     23445.398
        695.00	    -10.272497	     11.386883	     23450.018
        696.00	    -17.231163	     17.000239	     23451.228
        697.00	     18.169595	     13.826286	     23452.438
        698.00	     17.279163	     12.453451	     23453.648
        699.00	    -7.3532662	     10.040312	     23454.858
        700.00	     14.216343	     14.373389	     23456.068
        701.00	     32.773579	     16.885988	     23457.278
        702.00	     23.316975	     15.904645	     23458.488
        703.00	     11.072640	     12.441954	     23459.698
        704.00	     2.3050195	     9.3616710	     23460.909
        705.00	    -14.557093	     19.278267	     23462.118
        706.00	     18.193553	     19.079758	     23463.328
        707.00	     6.4317259	     23.053249	     23464.538
        708.00	    -17.959530	     13.423069	     23465.748
        709.00	     16.293245	     13.967997	     23466.959
        710.00	     6.7291810	     19.626778	     23468.169
        711.00	     22.485405	     14.857881	     23469.378
        712.00	     6.9301878	     21.758200	     23470.598
        713.00	    -32.535808	     19.717321	     23471.798
        714.00	     1.1931026	     22.650627	     23473.008
        715.00	     43.520028	     21.131570	     23474.218
        716.00	     4.2958312	     13.569200	     23475.428
        717.00	    -22.155341	     24.620097	     23476.639
        718.00	     4.4347685	     20.200504	     23477.848
        719.00	     28.639651	     15.991063	     23479.058
        720.00	     20.887849	     16.354856	     23480.268
        721.00	   -0.33205677	     13.879902	     23481.478
        722.00	     31.687091	     30.463299	     23482.688
        723.00	     4.7874448	     27.118315	     23483.908
        724.00	     36.150522	     20.035287	     23485.109
        725.00	    -40.941973	     17.410514	     23486.318
        726.00	     22.889772	     28.237202	     23487.528
        727.00	    -5.8129790	     20.046234	     23488.738
        728.00	     18.085305	     16.608954	     23489.948
        729.00	    -5.9773431	     19.451893	     23491.158
        730.00	     9.1089657	     24.855942	     23492.368
        731.00	     20.777704	     24.301314	     23493.578
        732.00	     13.283479	     22.139131	     23494.789
        733.00	     9.5209996	     25.811458	     23495.999
        734.00	    -8.4511892	     19.451150	     23497.208
        735.00	     5.7076329	     18.282940	     23498.418
        736.00	     18.206432	     33.785203	     23499.628
        737.00	     5.8680596	     20.533931	     23500.838
        738.00	    -34.466347	     19.615063	     23502.048
        739.00	     25.438297	     18.752464	     23503.258
        740.00	     27.988214	     20.408073	     23504.468
        741.00	    -22.631986	     19.969399	     23505.678
        742.00	    -11.712854	     22.069628	     23506.888
        743.00	    -34.742142	     31.634457	     23508.098
        744.00	     1.8530699	     29.054418	     23509.308
        745.00	    -12.200395	     19.846879	     23510.518
        746.00	    -14.746847	     34.422461	     23511.728
        747.00	     23.596071	     21.066965	     23512.938
        748.00	    -46.773270	     18.799991	     23514.158
        749.00	     29.088927	     32.879114	     23515.368
        750.00	     41.892894	     35.029288	     23516.568
        751.00	     70.161439	     21.431610	     23517.778
        752.00	     4.6025746	     30.505745	     23518.988
        753.00	    -28.977777	     27.543928	     23520.198
        754.00	    -24.116358	     33.569573	     23521.408
        755.00	     78.985174	     58.930383	     23522.618
        756.00	     26.343154	     20.608590	     23523.828
        757.00	     18.477373	     24.572479	     23525.038
        758.00	   -0.55214657	     22.333705	     23526.248
        759.00	     44.145537	     21.258241	     23527.458
        760.00	     22.079393	     30.850352	     23528.668
        761.00	    -17.788784	     43.249388	     23529.889
        762.00	    -3.4767133	     37.898912	     23531.088
        763.00	     19.921708	     24.627763	     23532.298
        764.00	    -27.294938	     34.768205	     23533.508
        765.00	     23.403955	     27.372490	     23534.718
        766.00	     57.117610	     38.430158	     23535.928
        767.00	    -49.802655	     24.357934	     23537.138
        768.00	    -41.041824	     26.545040	     23538.348
        769.00	     65.344257	     45.114051	     23539.557
        770.00	   -0.63620225	     42.796130	     23540.768
        771.00	     44.352977	     47.971094	     23541.988
        772.00	     25.302330	     44.174620	     23543.188
        773.00	     5.9086837	     22.978214	     23544.398
        774.00	   -0.66334286	     30.658435	     23545.608
        775.00	     26.178114	     40.165110	     23546.818
        776.00	    -21.009833	     46.641429	     23548.028
        777.00	     71.245844	     33.012475	     23549.238
        778.00	    -35.248141	     55.351163	     23550.448
        779.00	     93.732847	     53.374203	     23551.658
        780.00	    -4.2397440	     40.796955	     23552.868
        781.00	    -25.713938	     38.094723	     23554.078
        782.00	     42.540563	     40.946433	     23555.288
        783.00	    -40.863283	     49.251096	     23556.508
        784.00	     102.45586	     49.886276	     23557.708
        785.00	     36.429545	     51.224466	     23558.918
        786.00	     59.241264	     67.547885	     23560.128
        787.00	    -91.621433	     46.898321	     23561.338
        788.00	     48.900741	     45.274927	     23562.548
        789.00	    -8.4753235	     25.970123	     23563.758
        790.00	     53.595756	     36.730598	     23564.968
        791.00	    -102.74700	     61.383396	     23566.178
        792.00	     22.936303	     30.660046	     23567.388
        793.00	     214.54198	     70.650947	     23568.598
        794.00	     47.200000	     50.261538	     23569.818
        795.00	     34.948390	     42.691352	     23571.018
        796.00	     54.010212	     55.426078	     23572.228
        797.00	     29.756039	     33.859644	     23573.438
        798.00	    -63.281656	     62.821753	     23574.648
        799.00	     56.624802	     55.789978	     23575.868
        800.00	    -35.992871	     36.614824	     23577.068
