Title=200311_em_MeCN_2,0uM_ST488
Comment=
Signature=ISS_Experiment_Ver_1_0
Timestamp=Wed Mar 11 17:54:11 2020
Product=Vinci2
SoftwareVersion=BETA.2.4
BuildNumber=234
RealTimeStart=25082.7180818

AcquisitionType=Photon Counting
AcquisitionFormat=L
AcquisitionSide=Right
Detector Gains=(0.0, 0.0)

Measurable=Intensity
MaxIterations=10

RightEmissionWavelengthBandwidth=8.0
ExcitationWavelengthBandwidth=8.0
Visualization=Y:Intensity,X:EmissionWavelength,PlotType:2D


EmissionWavelength=type:numeric,unit:nm,from:400.0,to:800.0,step:1.0
ExcitationWavelength=type:numeric,unit:nm,fixed:507.0

Space=EmissionWavelength
Columns=EmissionWavelength,Intensity,IntensityStdError,RealTime
[Data]
        400.00	    -1.3370916	    0.79116096	     25091.517
        401.00	    -1.4477550	    0.95750991	     25092.997
        402.00	    -1.3300623	     1.9947858	     25094.207
        403.00	    -1.5540912	     1.6445205	     25095.417
        404.00	    -3.7196778	     1.0381129	     25096.627
        405.00	  -0.068380743	     1.6476149	     25097.837
        406.00	   -0.97737391	     1.0087050	     25099.047
        407.00	    0.61294180	     2.1069542	     25100.257
        408.00	    -1.4283800	    0.68122981	     25101.467
        409.00	   -0.86101335	     1.0133076	     25102.677
        410.00	    -1.5407922	     1.1725259	     25103.887
        411.00	    -1.3144111	     1.7407212	     25105.097
        412.00	    -1.6552989	     1.1956921	     25106.307
        413.00	    -1.7692598	     1.7876465	     25107.517
        414.00	   -0.40847021	    0.79694458	     25108.727
        415.00	   -0.52280539	     1.4180124	     25109.937
        416.00	  -0.068265502	    0.91414871	     25111.147
        417.00	    -1.3208753	     2.0524437	     25112.367
        418.00	    0.27373828	     1.2142361	     25113.567
        419.00	    -1.7816260	     1.2014352	     25114.787
        420.00	     1.5333967	     1.6578470	     25115.987
        421.00	   -0.75777664	     2.0427831	     25117.197
        422.00	    -1.3345526	     1.4266732	     25118.407
        423.00	    -1.7956366	    0.66011326	     25119.617
        424.00	   -0.29940117	     1.2168636	     25120.827
        425.00	   -0.99458216	     1.8683682	     25122.037
        426.00	   -0.76446347	     1.4285428	     25123.247
        427.00	   -0.53488916	     1.6449078	     25124.457
        428.00	    -3.7977798	     1.3254211	     25125.667
        429.00	    -1.7045406	     1.4670005	     25126.877
        430.00	    -2.4154823	     1.4837043	     25128.087
        431.00	    0.16477551	     1.3182274	     25129.297
        432.00	  -0.070846699	     1.4520320	     25130.507
        433.00	    -1.4921552	    0.68940135	     25131.717
        434.00	    0.16628398	     1.5881047	     25132.927
        435.00	    -1.3827980	     1.4348890	     25134.137
        436.00	    -1.3855311	     1.7911926	     25135.347
        437.00	   -0.19179772	     1.2534290	     25136.567
        438.00	    -1.3974825	     1.3342944	     25137.767
        439.00	    -1.1602560	     1.2325350	     25138.977
        440.00	    -1.1651191	     2.1995309	     25140.187
        441.00	    -2.2665070	     1.2380287	     25141.397
        442.00	    -2.0315546	     1.5203734	     25142.608
        443.00	    -3.2717889	     1.8558949	     25143.817
        444.00	    -3.8999748	     1.0439901	     25145.027
        445.00	    -3.6624671	     1.2207109	     25146.237
        446.00	    -1.5665792	     1.1758678	     25147.457
        447.00	    -1.4484075	     1.8538831	     25148.657
        448.00	     1.1810251	     1.4989412	     25149.867
        449.00	    -4.3696831	     1.6632366	     25151.077
        450.00	    -2.7407140	     1.7864305	     25152.287
        451.00	    -1.9841183	     1.5726458	     25153.497
        452.00	    -4.2999755	     1.2095769	     25154.707
        453.00	    -4.1832212	     1.0520822	     25155.917
        454.00	     1.6005519	     2.1426570	     25157.127
        455.00	    -4.4864189	     1.6177877	     25158.337
        456.00	    -1.9043243	     1.5682144	     25159.547
        457.00	    -2.6994569	     2.1134337	     25160.757
        458.00	    -2.4511629	     1.2949347	     25161.967
        459.00	   -0.47660484	     1.4258865	     25163.177
        460.00	    -2.6023274	     1.5177082	     25164.387
        461.00	    -2.4831408	     1.4952510	     25165.597
        462.00	   -0.21518041	     2.0854036	     25166.807
        463.00	    0.45883037	     1.9237952	     25168.017
        464.00	   0.054279126	     2.1292982	     25169.227
        465.00	    -1.7222795	     1.0238999	     25170.437
        466.00	  -0.082368918	    0.91635349	     25171.647
        467.00	     3.3636980	     1.1218351	     25172.857
        468.00	    0.74937660	     1.7921545	     25174.067
        469.00	     1.3094745	     1.7256185	     25175.277
        470.00	   -0.92296074	     1.6865059	     25176.487
        471.00	    -1.6356943	     1.9288300	     25177.697
        472.00	    0.62335568	     1.5490596	     25178.917
        473.00	   -0.93956356	     1.7685286	     25180.117
        474.00	     2.2045589	     2.1976072	     25181.367
        475.00	    0.34573103	     1.4564641	     25182.536
        476.00	    0.92660319	     2.0038315	     25183.747
        477.00	    -1.9792888	     1.9307524	     25184.957
        478.00	     1.0818233	     1.0508237	     25186.167
        479.00	   -0.38220956	     1.8497557	     25187.377
        480.00	     1.2429689	     1.9630770	     25188.587
        481.00	    -2.9175015	     2.7607955	     25189.796
        482.00	    -2.3372312	     1.8254042	     25191.007
        483.00	   0.060295619	     2.3865694	     25192.217
        484.00	   -0.84902202	     1.3332583	     25193.426
        485.00	    -3.7519420	     1.5089947	     25194.636
        486.00	    -1.7787531	    0.86138159	     25195.847
        487.00	    -2.8657599	     1.0129323	     25197.057
        488.00	    -3.0427060	     1.3846473	     25198.267
        489.00	     1.1555977	     1.4584398	     25199.476
        490.00	    -1.3496618	     1.2909633	     25200.687
        491.00	    0.37907503	     2.4011780	     25201.896
        492.00	   0.063450295	     1.6002953	     25203.106
        493.00	     3.0973761	     1.5433661	     25204.316
        494.00	     1.6691032	     1.8030915	     25205.526
        495.00	    -1.7080670	     1.3598994	     25206.736
        496.00	     2.4909094	     1.4477167	     25207.946
        497.00	     4.8070213	     1.8887695	     25209.156
        498.00	     1.7298497	     2.6911717	     25210.366
        499.00	     6.3849922	     1.8219206	     25211.576
        500.00	     2.0064186	     2.8190800	     25212.786
        501.00	     10.033711	     2.7672195	     25213.996
        502.00	     41.397936	     3.5099235	     25215.206
        503.00	     104.37052	     2.0777779	     25216.416
        504.00	     263.03278	     4.1923282	     25217.626
        505.00	     505.18336	     6.8798043	     25218.836
        506.00	     805.48710	     7.1230407	     25220.056
        507.00	     1029.9943	     8.6287521	     25221.256
        508.00	     1095.0247	     9.7672705	     25222.466
        509.00	     980.72681	     6.7520136	     25223.676
        510.00	     732.10267	     7.7440145	     25224.887
        511.00	     452.21991	     4.8224555	     25226.097
        512.00	     238.71694	     4.5328987	     25227.306
        513.00	     106.09966	     3.1728817	     25228.516
        514.00	     51.142375	     3.4321714	     25229.726
        515.00	     42.396999	     2.2038388	     25230.946
        516.00	     44.091346	     1.9588986	     25232.146
        517.00	     43.265940	     2.5793530	     25233.357
        518.00	     50.666389	     2.7518559	     25234.566
        519.00	     48.867851	     2.8390773	     25235.776
        520.00	     54.539666	     2.0589448	     25236.986
        521.00	     62.933242	     2.6139841	     25238.196
        522.00	     64.673976	     3.0937586	     25239.406
        523.00	     71.748884	     4.6832077	     25240.616
        524.00	     86.102271	     3.7205237	     25241.836
        525.00	     82.918088	     3.1988231	     25243.036
        526.00	     91.468494	     3.5406437	     25244.246
        527.00	     94.805708	     6.7481260	     25245.456
        528.00	     106.25841	     2.9098916	     25246.666
        529.00	     113.29855	     3.8237620	     25247.876
        530.00	     107.72933	     3.6114553	     25249.086
        531.00	     115.46496	     3.5378176	     25250.297
        532.00	     116.70792	     2.5935440	     25251.506
        533.00	     128.27417	     4.2441805	     25252.726
        534.00	     130.36245	     5.8595698	     25253.926
        535.00	     131.73246	     4.4898518	     25255.136
        536.00	     136.95724	     3.6779046	     25256.346
        537.00	     137.40709	     4.4810381	     25257.556
        538.00	     145.87254	     4.9132061	     25258.766
        539.00	     148.27036	     4.3602361	     25259.976
        540.00	     137.84026	     2.9422559	     25261.186
        541.00	     145.78464	     4.2003989	     25262.396
        542.00	     134.89426	     3.9806618	     25263.606
        543.00	     138.01361	     1.7414629	     25264.816
        544.00	     133.46970	     5.4706083	     25266.026
        545.00	     135.75479	     2.9895511	     25267.236
        546.00	     134.90081	     4.5040042	     25271.856
        547.00	     132.56753	     4.1028737	     25273.066
        548.00	     135.71607	     4.7182039	     25274.276
        549.00	     132.20993	     3.6595750	     25275.496
        550.00	     118.16668	     3.4744321	     25276.696
        551.00	     116.32244	     4.5751032	     25277.906
        552.00	     126.49700	     3.2597142	     25279.116
        553.00	     115.45244	     4.0101009	     25280.326
        554.00	     106.40964	     5.1935675	     25281.536
        555.00	     99.034571	     4.1559892	     25282.746
        556.00	     112.90099	     2.9527654	     25283.956
        557.00	     104.79055	     5.5617445	     25285.166
        558.00	     100.05099	     6.4277362	     25286.376
        559.00	     92.928393	     5.3019312	     25287.586
        560.00	     80.899875	     2.2633858	     25288.796
        561.00	     87.632333	     5.4819364	     25290.006
        562.00	     86.852124	     5.3495312	     25291.216
        563.00	     78.299927	     3.9970495	     25292.426
        564.00	     68.938387	     3.9427256	     25293.636
        565.00	     70.713328	     4.3979154	     25294.846
        566.00	     76.718755	     4.2429324	     25296.056
        567.00	     73.920482	     3.3818838	     25297.266
        568.00	     69.604671	     3.5441343	     25298.476
        569.00	     71.836268	     4.9118679	     25299.686
        570.00	     64.684138	     5.1050144	     25300.896
        571.00	     64.690979	     3.2041838	     25302.106
        572.00	     63.884901	     5.9858617	     25303.326
        573.00	     60.121728	     4.2457051	     25304.526
        574.00	     56.204133	     3.7859597	     25305.736
        575.00	     64.423621	     4.4053966	     25306.946
        576.00	     54.637501	     3.2667894	     25308.156
        577.00	     48.439494	     3.2839130	     25309.366
        578.00	     52.464586	     3.4378080	     25310.576
        579.00	     50.943547	     4.1637915	     25311.786
        580.00	     50.854006	     4.2962886	     25312.996
        581.00	     41.492370	     3.5026205	     25314.206
        582.00	     51.301829	     6.8492637	     25315.416
        583.00	     49.111863	     3.7967441	     25316.626
        584.00	     45.691217	     4.5868870	     25317.836
        585.00	     38.054941	     3.4012594	     25319.046
        586.00	     43.747810	     4.7173252	     25320.256
        587.00	     41.372571	     4.0587728	     25321.466
        588.00	     45.574552	     4.8597480	     25322.676
        589.00	     35.291156	     4.8972928	     25323.896
        590.00	     34.324286	     2.5609928	     25325.096
        591.00	     33.948198	     4.1247854	     25326.306
        592.00	     31.457379	     4.6157481	     25327.516
        593.00	     32.587617	     4.0932105	     25328.726
        594.00	     35.695960	     4.5635082	     25329.936
        595.00	     37.258359	     5.5438110	     25331.146
        596.00	     36.952138	     3.9942067	     25332.366
        597.00	     29.158035	     5.9966080	     25333.566
        598.00	     24.451173	     4.2609282	     25334.776
        599.00	     32.916459	     5.2785964	     25335.985
        600.00	     36.190332	     4.4557366	     25337.196
        601.00	     34.130268	     4.7029897	     25338.406
        602.00	     31.407096	     2.3849295	     25339.616
        603.00	     30.298941	     3.9306412	     25340.826
        604.00	     31.246364	     4.2721538	     25342.036
        605.00	     21.107397	     4.3766099	     25343.246
        606.00	     25.876628	     4.5146654	     25344.456
        607.00	     27.520831	     3.7007658	     25345.666
        608.00	     19.171542	     6.2681591	     25346.876
        609.00	     23.711406	     3.9152921	     25348.086
        610.00	     22.497375	     4.5289542	     25349.296
        611.00	     23.442511	     3.6530187	     25350.506
        612.00	     19.205106	     4.3757847	     25351.716
        613.00	     15.646533	     4.3862588	     25352.926
        614.00	     18.441313	     3.5528168	     25354.136
        615.00	     20.548052	     5.7204931	     25355.345
        616.00	     24.250915	     5.4557148	     25356.566
        617.00	     10.406729	     5.4226161	     25357.766
        618.00	     16.071757	     5.4740217	     25358.975
        619.00	     5.8372041	     4.5016693	     25360.186
        620.00	     20.473709	     6.0029813	     25361.396
        621.00	     11.700199	     3.3095093	     25362.605
        622.00	     10.997867	     5.0992616	     25363.815
        623.00	     15.309027	     4.6010736	     25365.025
        624.00	     15.902058	     6.4294808	     25366.235
        625.00	     13.511022	     7.1601900	     25367.445
        626.00	     18.865607	     7.1885094	     25368.655
        627.00	     3.3285097	     5.3039809	     25369.865
        628.00	     12.649159	     6.4075254	     25371.075
        629.00	     16.856420	     6.1250675	     25372.285
        630.00	     17.505955	     7.2010278	     25373.495
        631.00	     12.207816	     4.5612721	     25374.705
        632.00	     7.2472950	     6.1085042	     25375.915
        633.00	     9.6939320	     6.9462481	     25377.125
        634.00	     7.4310303	     9.0603585	     25378.335
        635.00	     4.1392520	     3.4744701	     25379.555
        636.00	     6.6335249	     4.1895583	     25380.755
        637.00	     10.670920	     3.4699111	     25381.965
        638.00	     14.301806	     4.6223919	     25383.175
        639.00	     13.474839	     6.1557812	     25384.385
        640.00	     2.3571553	     9.1362512	     25385.596
        641.00	     11.220212	     3.8093313	     25386.805
        642.00	     11.885525	     7.6913759	     25388.015
        643.00	    -6.5974750	     7.0048221	     25389.235
        644.00	     11.642282	     7.9622139	     25390.435
        645.00	     13.428400	     9.6984769	     25391.645
        646.00	     4.2053092	     7.0956788	     25392.855
        647.00	     13.229997	     6.3203264	     25394.065
        648.00	    -1.9288419	     3.9167433	     25395.275
        649.00	     7.8159910	     5.5653837	     25396.485
        650.00	     7.9198107	     7.2734121	     25397.696
        651.00	    -1.4177807	     6.0372684	     25398.905
        652.00	     12.932075	     6.6309807	     25400.115
        653.00	   -0.24298399	     5.2646531	     25401.325
        654.00	     12.675973	     6.8059147	     25402.535
        655.00	    0.99693197	     4.2766845	     25403.745
        656.00	     6.6993597	     8.3235315	     25404.955
        657.00	    -14.352256	     7.8762656	     25406.165
        658.00	    -2.8587391	     11.410648	     25407.375
        659.00	    -6.8491917	     8.2606906	     25408.585
        660.00	    -4.9403003	     9.4019834	     25409.795
        661.00	    -9.7381814	     6.1155148	     25411.006
        662.00	     3.8367682	     11.038059	     25412.215
        663.00	     10.850975	     6.3750533	     25413.425
        664.00	    -31.343675	     8.6009995	     25414.635
        665.00	    -1.7157848	     4.5214900	     25415.845
        666.00	     6.9748037	     11.034513	     25417.055
        667.00	     10.761530	     13.637845	     25418.265
        668.00	     7.9151876	     7.2182529	     25419.475
        669.00	     5.7640895	     11.418550	     25420.685
        670.00	    -8.7733062	     10.666813	     25421.896
        671.00	     8.2683096	     9.7321474	     25423.105
        672.00	     2.0584140	     3.7784619	     25424.315
        673.00	    -12.381971	     9.8872808	     25425.535
        674.00	    -19.909163	     11.200950	     25426.735
        675.00	     16.230882	     8.9700890	     25427.945
        676.00	     14.771045	     11.049423	     25429.155
        677.00	     5.6267564	     14.063302	     25430.365
        678.00	     8.3037949	     11.077131	     25431.575
        679.00	     19.846111	     13.041453	     25432.785
        680.00	     20.109092	     17.408340	     25433.995
        681.00	     23.165422	     12.348551	     25435.205
        682.00	     3.3055907	     12.410127	     25436.415
        683.00	    -1.3049006	     14.734074	     25437.625
        684.00	   -0.37787790	     9.2131285	     25438.835
        685.00	     20.743763	     8.3722191	     25440.045
        686.00	    -8.1740160	     11.891443	     25441.255
        687.00	   -0.39494232	     10.176100	     25442.465
        688.00	     8.6290962	     13.907309	     25443.675
        689.00	     7.7338093	     14.629015	     25444.885
        690.00	     2.6872807	     9.2765702	     25446.095
        691.00	    -19.317186	     13.389838	     25447.306
        692.00	    -4.6865995	     18.020085	     25448.515
        693.00	     11.464099	     18.028918	     25449.725
        694.00	    -10.995884	     9.5859893	     25450.935
        695.00	    -6.6994545	     17.693802	     25455.555
        696.00	    -15.870808	     18.027516	     25456.765
        697.00	    -13.799692	     22.033674	     25457.975
        698.00	    -23.350220	     13.945120	     25459.185
        699.00	     3.5580320	     9.0927485	     25460.395
        700.00	    -16.866847	     11.471751	     25461.605
        701.00	     3.6686842	     13.574805	     25462.815
        702.00	    -29.766352	     10.588758	     25464.025
        703.00	    -36.489383	     14.042682	     25465.235
        704.00	     5.1222655	     14.027902	     25466.455
        705.00	     0.0000000	     17.023899	     25467.655
        706.00	    -27.685842	     13.651515	     25468.865
        707.00	    -28.138801	     16.860578	     25470.075
        708.00	    -13.605705	     14.081156	     25471.285
        709.00	    -35.900370	     16.594952	     25472.495
        710.00	    -37.851643	     24.942842	     25473.705
        711.00	    -19.923777	     22.229953	     25474.915
        712.00	    -12.994102	     24.449868	     25476.125
        713.00	    -24.914808	     14.065806	     25477.335
        714.00	     17.896539	     24.333801	     25478.545
        715.00	    -28.711130	     20.651865	     25479.755
        716.00	    -32.218734	     22.554216	     25480.965
        717.00	    -1.5602353	     22.580030	     25482.175
        718.00	    -23.757689	     14.640464	     25483.385
        719.00	    -41.833198	     16.089692	     25484.595
        720.00	     6.5274529	     25.859298	     25485.805
        721.00	    -24.904258	     10.915305	     25487.015
        722.00	    -10.112901	     11.514045	     25488.225
        723.00	     1.7098017	     18.388651	     25489.435
        724.00	    -33.022111	     15.770268	     25490.645
        725.00	    -3.5294805	     20.411399	     25491.855
        726.00	     16.094371	     20.692061	     25493.065
        727.00	    -21.798671	     21.010712	     25494.275
        728.00	    -66.435816	     24.296338	     25495.485
        729.00	    -24.282957	     16.485266	     25496.695
        730.00	    -41.749426	     21.207512	     25497.905
        731.00	    -28.857922	     21.547630	     25499.115
        732.00	    -44.929413	     27.938851	     25500.325
        733.00	     9.9177079	     24.463680	     25501.535
        734.00	     2.0121879	     21.220925	     25502.745
        735.00	    -55.037888	     22.627810	     25503.955
        736.00	    -51.722818	     28.342342	     25505.165
        737.00	     2.0957356	     28.980486	     25506.375
        738.00	    -42.551045	     19.857154	     25507.585
        739.00	    -53.894697	     26.196741	     25508.795
        740.00	    -39.358426	     19.502957	     25510.005
        741.00	    -31.063510	     23.805709	     25511.215
        742.00	    -22.524719	     32.933711	     25512.425
        743.00	     6.8570017	     25.825680	     25513.635
        744.00	    -64.857446	     28.641105	     25514.845
        745.00	    -18.769839	     26.126510	     25516.054
        746.00	    -47.570475	     34.957017	     25517.275
        747.00	     14.446574	     24.290704	     25518.514
        748.00	    -114.49707	     13.318380	     25519.694
        749.00	    -4.9303266	     36.785215	     25520.895
        750.00	    -69.821490	     23.451270	     25522.105
        751.00	    -52.999648	     33.067144	     25523.314
        752.00	    -30.683831	     25.908547	     25524.524
        753.00	    -80.206348	     26.511952	     25525.734
        754.00	    -15.728060	     29.242308	     25526.945
        755.00	    -60.961711	     36.438477	     25528.154
        756.00	    -86.018463	     29.771793	     25529.365
        757.00	    -27.172608	     26.313662	     25530.574
        758.00	    -13.803664	     36.913154	     25531.785
        759.00	     0.0000000	     36.595873	     25532.994
        760.00	    -25.476222	     34.294358	     25534.205
        761.00	    -8.6074759	     37.786334	     25535.414
        762.00	    -11.589044	     21.508356	     25536.624
        763.00	    -43.944944	     35.867605	     25537.834
        764.00	    -112.73996	     36.416892	     25539.044
        765.00	    -42.007098	     37.900995	     25540.254
        766.00	    -45.572561	     34.625669	     25541.464
        767.00	    -49.187807	     44.194955	     25542.674
        768.00	     24.873832	     44.019969	     25543.884
        769.00	    -75.397220	     41.041048	     25545.094
        770.00	     0.0000000	     45.036250	     25546.305
        771.00	    -54.637725	     28.121083	     25547.514
        772.00	    -71.365545	     44.108401	     25548.724
        773.00	    -3.2826021	     47.253763	     25549.934
        774.00	    -79.601143	     29.583075	     25551.144
        775.00	    -104.04122	     30.122534	     25552.354
        776.00	    -40.664193	     38.867402	     25553.564
        777.00	     17.126405	     42.245132	     25554.774
        778.00	    -13.822800	     54.712220	     25555.984
        779.00	    -69.949886	     44.910999	     25557.195
        780.00	    -21.198720	     46.216546	     25558.404
        781.00	    -49.999324	     54.241103	     25559.614
        782.00	     10.815397	     41.437247	     25560.824
        783.00	    -18.242537	     20.674875	     25562.034
        784.00	     33.169164	     61.974732	     25563.244
        785.00	    -59.476808	     30.853345	     25564.464
        786.00	    -74.988942	     44.434420	     25565.664
        787.00	    -87.078221	     43.000803	     25566.874
        788.00	    -61.125927	     48.324288	     25568.084
        789.00	    -65.491136	     63.548710	     25569.294
        790.00	     81.558759	     49.482903	     25570.505
        791.00	    -70.589544	     45.207679	     25571.714
        792.00	     63.272561	     38.566574	     25572.924
        793.00	    -83.743154	     37.242909	     25574.144
        794.00	     4.0000000	     34.794636	     25575.354
        795.00	     0.0000000	     54.324318	     25576.564
        796.00	    -50.879186	     63.925131	     25577.764
        797.00	    -45.778522	     58.050789	     25578.974
        798.00	     0.0000000	     54.900588	     25580.184
        799.00	    -32.254634	     32.954952	     25581.394
        800.00	     14.114852	     49.064762	     25582.604
