Sample:	
Run Date:	11-03-2020 14:41:53
Operator:	Hitachi spectro
Comment:	

Instrument
Model:	U-2010 Spectrophotometer
Serial Number:	9709-014
ROM Version:	2550 00

Instrument Parameters
Measurement Type:	Wavelength Scan
Data Mode:	Abs
Starting Wavelength:	800.0 nm
Ending Wavelength:	200.0 nm
Scan Speed:	100 nm/min
Sampling Interval:	1.0 nm
Slit Width:	2 nm
Lamp Change:	370.0 nm
Baseline Correction:	System
Response:	Medium

Peak Integration
Area Method:	Rectangular
Threshold:	10.0% based on 1 highest peaks
Peak Width:	10.0 nm
Peaks
Peak #	Start (nm)	Apex (nm)	End (nm)	Height (Abs)	Area (Abs*nm)
1	300.0	233.0	219.0	2.2967	31.1636

Data Points
nm	Abs
800.0	0.0003
799.0	0.0004
798.0	0.0005
797.0	0.0005
796.0	0.0005
795.0	0.0005
794.0	0.0005
793.0	0.0005
792.0	0.0004
791.0	0.0005
790.0	0.0005
789.0	0.0005
788.0	0.0005
787.0	0.0005
786.0	0.0005
785.0	0.0005
784.0	0.0005
783.0	0.0005
782.0	0.0005
781.0	0.0005
780.0	0.0005
779.0	0.0005
778.0	0.0005
777.0	0.0005
776.0	0.0005
775.0	0.0005
774.0	0.0005
773.0	0.0005
772.0	0.0005
771.0	0.0005
770.0	0.0005
769.0	0.0005
768.0	0.0005
767.0	0.0005
766.0	0.0005
765.0	0.0005
764.0	0.0005
763.0	0.0005
762.0	0.0005
761.0	0.0005
760.0	0.0007
759.0	0.0007
758.0	0.0007
757.0	0.0007
756.0	0.0007
755.0	0.0009
754.0	0.0009
753.0	0.0009
752.0	0.0009
751.0	0.0007
750.0	0.0005
749.0	0.0005
748.0	0.0005
747.0	0.0005
746.0	0.0005
745.0	0.0005
744.0	0.0005
743.0	0.0005
742.0	0.0005
741.0	0.0005
740.0	0.0005
739.0	0.0007
738.0	0.0009
737.0	0.0009
736.0	0.0009
735.0	0.0009
734.0	0.0010
733.0	0.0010
732.0	0.0010
731.0	0.0009
730.0	0.0009
729.0	0.0009
728.0	0.0009
727.0	0.0009
726.0	0.0009
725.0	0.0009
724.0	0.0009
723.0	0.0009
722.0	0.0009
721.0	0.0007
720.0	0.0007
719.0	0.0007
718.0	0.0009
717.0	0.0009
716.0	0.0009
715.0	0.0007
714.0	0.0007
713.0	0.0007
712.0	0.0007
711.0	0.0007
710.0	0.0009
709.0	0.0009
708.0	0.0007
707.0	0.0007
706.0	0.0009
705.0	0.0009
704.0	0.0007
703.0	0.0007
702.0	0.0007
701.0	0.0005
700.0	0.0005
699.0	0.0005
698.0	0.0005
697.0	0.0005
696.0	0.0005
695.0	0.0005
694.0	0.0005
693.0	0.0005
692.0	0.0005
691.0	0.0005
690.0	0.0005
689.0	0.0005
688.0	0.0005
687.0	0.0005
686.0	0.0005
685.0	0.0005
684.0	0.0005
683.0	0.0005
682.0	0.0005
681.0	0.0005
680.0	0.0005
679.0	0.0005
678.0	0.0004
677.0	0.0005
676.0	0.0005
675.0	0.0004
674.0	0.0005
673.0	0.0005
672.0	0.0004
671.0	0.0004
670.0	0.0005
669.0	0.0005
668.0	0.0004
667.0	0.0005
666.0	0.0005
665.0	0.0004
664.0	0.0003
663.0	0.0003
662.0	0.0003
661.0	0.0003
660.0	0.0003
659.0	0.0003
658.0	0.0003
657.0	0.0003
656.0	0.0003
655.0	0.0003
654.0	0.0003
653.0	0.0003
652.0	0.0003
651.0	0.0003
650.0	0.0002
649.0	0.0003
648.0	0.0003
647.0	0.0003
646.0	0.0003
645.0	0.0003
644.0	0.0003
643.0	0.0003
642.0	0.0003
641.0	0.0003
640.0	0.0002
639.0	0.0003
638.0	0.0003
637.0	0.0003
636.0	0.0003
635.0	0.0001
634.0	0.0001
633.0	0.0003
632.0	0.0003
631.0	0.0003
630.0	0.0003
629.0	0.0001
628.0	0.0001
627.0	0.0003
626.0	0.0003
625.0	0.0003
624.0	0.0003
623.0	0.0003
622.0	0.0004
621.0	0.0004
620.0	0.0004
619.0	0.0003
618.0	0.0004
617.0	0.0005
616.0	0.0005
615.0	0.0004
614.0	0.0003
613.0	0.0003
612.0	0.0003
611.0	0.0003
610.0	0.0003
609.0	0.0003
608.0	0.0003
607.0	0.0003
606.0	0.0003
605.0	0.0003
604.0	0.0003
603.0	0.0004
602.0	0.0003
601.0	0.0000
600.0	-0.0001
599.0	-0.0002
598.0	-0.0003
597.0	-0.0003
596.0	-0.0003
595.0	-0.0003
594.0	-0.0003
593.0	-0.0003
592.0	-0.0003
591.0	-0.0003
590.0	-0.0004
589.0	-0.0004
588.0	-0.0004
587.0	-0.0003
586.0	-0.0003
585.0	-0.0003
584.0	-0.0003
583.0	-0.0003
582.0	-0.0003
581.0	-0.0003
580.0	-0.0002
579.0	-0.0001
578.0	-0.0002
577.0	-0.0002
576.0	-0.0001
575.0	-0.0002
574.0	-0.0003
573.0	-0.0003
572.0	-0.0003
571.0	-0.0002
570.0	-0.0001
569.0	-0.0001
568.0	-0.0001
567.0	-0.0002
566.0	-0.0003
565.0	-0.0003
564.0	-0.0003
563.0	-0.0003
562.0	-0.0003
561.0	-0.0003
560.0	-0.0003
559.0	-0.0003
558.0	-0.0003
557.0	-0.0003
556.0	-0.0003
555.0	-0.0002
554.0	-0.0001
553.0	-0.0002
552.0	-0.0003
551.0	-0.0003
550.0	-0.0003
549.0	-0.0003
548.0	-0.0003
547.0	-0.0003
546.0	-0.0002
545.0	-0.0001
544.0	-0.0002
543.0	-0.0003
542.0	-0.0004
541.0	-0.0003
540.0	-0.0003
539.0	-0.0003
538.0	-0.0003
537.0	-0.0003
536.0	-0.0003
535.0	-0.0003
534.0	-0.0003
533.0	-0.0003
532.0	-0.0003
531.0	-0.0003
530.0	-0.0003
529.0	-0.0003
528.0	-0.0002
527.0	-0.0001
526.0	-0.0002
525.0	-0.0003
524.0	-0.0003
523.0	-0.0003
522.0	-0.0003
521.0	-0.0002
520.0	0.0000
519.0	0.0000
518.0	-0.0002
517.0	-0.0003
516.0	-0.0003
515.0	-0.0003
514.0	-0.0002
513.0	-0.0001
512.0	-0.0001
511.0	0.0000
510.0	0.0000
509.0	0.0000
508.0	0.0000
507.0	0.0000
506.0	0.0000
505.0	0.0001
504.0	0.0003
503.0	0.0003
502.0	0.0001
501.0	0.0000
500.0	0.0000
499.0	0.0000
498.0	-0.0002
497.0	-0.0002
496.0	0.0000
495.0	0.0000
494.0	0.0000
493.0	0.0000
492.0	0.0000
491.0	0.0000
490.0	0.0000
489.0	0.0000
488.0	0.0000
487.0	0.0000
486.0	0.0000
485.0	0.0000
484.0	0.0000
483.0	0.0000
482.0	0.0000
481.0	-0.0001
480.0	0.0000
479.0	0.0000
478.0	0.0000
477.0	0.0000
476.0	0.0001
475.0	0.0003
474.0	0.0003
473.0	0.0003
472.0	0.0003
471.0	0.0001
470.0	0.0000
469.0	0.0000
468.0	0.0001
467.0	0.0003
466.0	0.0003
465.0	0.0002
464.0	0.0003
463.0	0.0003
462.0	0.0001
461.0	0.0001
460.0	0.0003
459.0	0.0003
458.0	0.0003
457.0	0.0003
456.0	0.0003
455.0	0.0003
454.0	0.0003
453.0	0.0003
452.0	0.0004
451.0	0.0004
450.0	0.0004
449.0	0.0003
448.0	0.0004
447.0	0.0004
446.0	0.0004
445.0	0.0004
444.0	0.0005
443.0	0.0005
442.0	0.0005
441.0	0.0005
440.0	0.0005
439.0	0.0005
438.0	0.0005
437.0	0.0005
436.0	0.0005
435.0	0.0005
434.0	0.0005
433.0	0.0005
432.0	0.0005
431.0	0.0005
430.0	0.0005
429.0	0.0005
428.0	0.0005
427.0	0.0007
426.0	0.0009
425.0	0.0009
424.0	0.0009
423.0	0.0010
422.0	0.0012
421.0	0.0012
420.0	0.0010
419.0	0.0012
418.0	0.0012
417.0	0.0013
416.0	0.0013
415.0	0.0012
414.0	0.0012
413.0	0.0013
412.0	0.0015
411.0	0.0015
410.0	0.0015
409.0	0.0015
408.0	0.0016
407.0	0.0017
406.0	0.0017
405.0	0.0017
404.0	0.0018
403.0	0.0020
402.0	0.0020
401.0	0.0020
400.0	0.0020
399.0	0.0020
398.0	0.0020
397.0	0.0021
396.0	0.0024
395.0	0.0024
394.0	0.0026
393.0	0.0026
392.0	0.0024
391.0	0.0027
390.0	0.0029
389.0	0.0029
388.0	0.0030
387.0	0.0032
386.0	0.0032
385.0	0.0032
384.0	0.0032
383.0	0.0033
382.0	0.0035
381.0	0.0035
380.0	0.0034
379.0	0.0030
378.0	0.0026
377.0	0.0027
376.0	0.0032
375.0	0.0039
374.0	0.0044
373.0	0.0043
372.0	0.0043
371.0	0.0050
370.0	0.0060
369.0	0.0066
368.0	0.0070
367.0	0.0073
366.0	0.0073
365.0	0.0075
364.0	0.0077
363.0	0.0080
362.0	0.0083
361.0	0.0086
360.0	0.0087
359.0	0.0090
358.0	0.0094
357.0	0.0100
356.0	0.0105
355.0	0.0110
354.0	0.0117
353.0	0.0127
352.0	0.0139
351.0	0.0152
350.0	0.0166
349.0	0.0183
348.0	0.0203
347.0	0.0223
346.0	0.0243
345.0	0.0265
344.0	0.0291
343.0	0.0314
342.0	0.0334
341.0	0.0355
340.0	0.0375
339.0	0.0395
338.0	0.0411
337.0	0.0426
336.0	0.0442
335.0	0.0452
334.0	0.0460
333.0	0.0466
332.0	0.0474
331.0	0.0480
330.0	0.0485
329.0	0.0487
328.0	0.0487
327.0	0.0487
326.0	0.0487
325.0	0.0484
324.0	0.0479
323.0	0.0472
322.0	0.0464
321.0	0.0458
320.0	0.0448
319.0	0.0439
318.0	0.0431
317.0	0.0424
316.0	0.0413
315.0	0.0405
314.0	0.0397
313.0	0.0388
312.0	0.0380
311.0	0.0372
310.0	0.0363
309.0	0.0353
308.0	0.0348
307.0	0.0343
306.0	0.0339
305.0	0.0335
304.0	0.0334
303.0	0.0335
302.0	0.0339
301.0	0.0340
300.0	0.0345
299.0	0.0352
298.0	0.0361
297.0	0.0369
296.0	0.0382
295.0	0.0394
294.0	0.0407
293.0	0.0421
292.0	0.0436
291.0	0.0455
290.0	0.0472
289.0	0.0492
288.0	0.0514
287.0	0.0535
286.0	0.0555
285.0	0.0571
284.0	0.0588
283.0	0.0607
282.0	0.0624
281.0	0.0640
280.0	0.0656
279.0	0.0672
278.0	0.0688
277.0	0.0704
276.0	0.0719
275.0	0.0730
274.0	0.0742
273.0	0.0756
272.0	0.0768
271.0	0.0778
270.0	0.0788
269.0	0.0799
268.0	0.0810
267.0	0.0824
266.0	0.0842
265.0	0.0861
264.0	0.0886
263.0	0.0914
262.0	0.0945
261.0	0.0977
260.0	0.1015
259.0	0.1059
258.0	0.1109
257.0	0.1164
256.0	0.1228
255.0	0.1302
254.0	0.1390
253.0	0.1494
252.0	0.1615
251.0	0.1754
250.0	0.1919
249.0	0.2106
248.0	0.2318
247.0	0.2567
246.0	0.2863
245.0	0.3218
244.0	0.3663
243.0	0.4234
242.0	0.4981
241.0	0.5962
240.0	0.7235
239.0	0.8864
238.0	1.0937
237.0	1.3497
236.0	1.6536
235.0	1.9788
234.0	2.2518
233.0	2.3565
232.0	2.3372
231.0	2.2291
230.0	2.1079
229.0	1.9393
228.0	1.7496
227.0	1.5186
226.0	1.2757
225.0	1.0004
224.0	0.6981
223.0	0.4184
222.0	0.2118
221.0	0.1009
220.0	0.0671
219.0	0.0651
218.0	0.0742
217.0	0.0916
216.0	0.0986
215.0	0.0969
214.0	0.0824
213.0	0.0679
212.0	0.0838
211.0	0.1000
210.0	0.0882
209.0	0.0724
208.0	0.0680
207.0	0.0825
206.0	0.1102
205.0	0.1332
204.0	0.1477
203.0	0.1341
202.0	0.1101
201.0	0.1090
200.0	0.1090
